#DATA points as shown in lower figure of: 16_11_18-2.pdf file!
#wn (cm-1)       intensity
 548.429	    0.32
 550.418	    0.43
 552.449	    0.35
 554.403	    0.22
 556.446	   -0.11
 558.414	   -0.13
 560.428	   -0.21
 562.404	   -0.29
 564.419	   -0.10
 566.417	   -0.50
 568.359	   -0.29
 570.409	   -0.45
 572.398	   -0.38
 574.398	   -0.67
 576.389	   -0.62
 578.354	   -0.76
 580.391	   -0.44
 582.375	   -0.46
 584.362	   -0.77
 586.377	   -0.43
 588.343	   -0.36
 590.358	   -0.46
 592.350	   -0.40
 594.329	   -0.28
 596.360	   -0.26
 598.326	   -0.10
 600.355	    0.17
 602.324	    0.26
 604.309	    0.53
 606.332	    0.68
 608.330	    0.72
 610.318	    0.74
 612.310	    0.59
 614.336	    0.38
 616.297	    0.27
 618.255	    0.34
 620.316	    0.30
 622.322	    0.15
 624.325	    0.10
 626.274	   -0.05
 628.288	   -0.10
 630.292	   -0.18
 632.267	   -0.08
 634.283	    0.28
 636.284	    0.45
 638.284	    0.39
 640.272	    0.01
 642.246	    0.31
 644.259	    0.21
 646.257	    0.27
 648.260	   -0.05
 650.244	    0.09
 652.235	    0.00
 654.227	    0.01
 656.243	    0.17
 658.224	    0.06
 660.247	    0.03
 662.215	    0.05
 664.216	   -0.06
 666.222	   -0.05
 668.201	   -0.31
 670.217	   -0.01
 672.209	    0.11
 674.203	    0.07
 676.199	    0.17
 678.204	    0.07
 680.201	   -0.13
 682.192	    0.12
 684.191	    0.23
 686.184	    0.22
 688.176	    0.14
 690.159	    0.22
 692.167	    0.00
 694.183	    0.02
 696.162	    0.06
 698.160	    0.18
 700.160	    0.11
 702.153	    0.20
 704.145	   -0.01
 706.160	    0.08
 708.139	    0.10
 710.133	   -0.11
 712.140	   -0.14
 714.131	    0.03
 716.118	    0.06
 718.127	   -0.14
 720.146	   -0.16
 722.121	   -0.08
 724.122	    0.02
 726.122	   -0.16
 728.105	   -0.03
 730.101	   -0.03
 732.088	    0.04
 734.092	    0.23
 736.077	    0.29
 738.085	    0.17
 740.071	    0.69
 742.087	    1.04
 744.056	    1.20
 746.078	    1.64
 748.063	    2.18
 750.073	    3.20
 752.069	    4.81
 754.062	    5.16
 756.051	    4.55
 758.058	    3.50
 760.047	    3.22
 762.044	    3.24
 764.036	    2.96
 766.041	    2.53
 768.033	    2.07
 770.026	    1.50
 772.023	    1.14
 774.026	    0.90
 776.014	    0.68
 778.032	    0.64
 780.020	    0.63
 782.023	    0.38
 784.016	    0.43
 786.001	    0.25
 787.994	    0.22
 790.010	    0.31
 791.995	    0.51
 793.995	    0.24
 795.995	    0.48
 797.980	    0.33
 799.985	    0.39
 801.971	    0.47
 803.973	    0.45
 805.980	    0.64
 807.969	    0.63
 809.973	    0.78
 811.953	    0.92
 813.977	    0.92
 815.954	    1.24
 817.972	    1.15
 819.934	    1.10
 821.956	    1.21
 823.935	    1.02
 825.954	    1.30
 827.934	    1.31
 829.945	    1.34
 831.921	    1.57
 833.944	    1.60
 835.915	    1.58
 837.931	    1.71
 839.911	    2.09
 841.929	    1.99
 843.916	    1.85
 845.907	    2.12
 847.889	    1.86
 849.910	    2.07
 851.871	    2.09
 853.914	    1.96
 855.852	    1.92
 857.889	    2.05
 859.852	    1.78
 861.888	    1.96
 863.865	    1.82
 865.886	    1.77
 867.830	    1.91
 869.871	    1.80
 871.850	    1.52
 873.868	    1.64
 875.853	    1.58
 877.864	    1.37
 879.832	    1.39
 881.860	    1.29
 883.850	    1.13
 885.844	    1.14
 887.838	    1.00
 889.841	    0.95
 891.827	    0.89
 893.812	    0.89
 895.833	    0.78
 897.811	    0.79
 899.822	    0.90
 901.806	    0.91
 903.807	    0.93
 905.794	    1.06
 907.799	    1.04
 909.773	    1.17
 911.802	    1.25
 913.790	    1.37
 915.795	    1.87
 917.754	    2.36
 919.765	    3.01
 921.745	    3.58
 923.770	    4.00
 925.764	    4.53
 927.754	    4.43
 929.748	    4.33
 931.730	    4.10
 933.730	    3.62
 935.739	    2.99
 937.734	    2.32
 939.721	    1.72
 941.740	    1.30
 943.725	    1.09
 945.709	    0.99
 947.704	    0.83
 949.726	    0.60
 951.700	    0.60
 953.735	    0.45
 955.676	    0.49
 957.700	    0.47
 959.692	    0.33
 961.672	    0.27
 963.681	    0.27
 965.696	    0.32
 967.704	    0.34
 969.676	    0.23
 971.692	    0.24
 973.679	    0.23
 975.678	    0.28
 977.632	    0.19
 979.666	    0.13
 981.655	    0.11
 983.653	    0.26
 985.636	    0.22
 987.644	    0.07
 989.657	    0.22
 991.637	    0.12
 993.632	    0.16
 995.615	    0.14
 997.640	    0.20
 999.632	    0.16
1001.642	    0.14
1003.582	    0.07
1005.611	    0.16
1007.599	   -0.00
1009.610	   -0.01
1011.595	    0.04
1013.566	    0.04
1015.613	   -0.03
1017.578	   -0.02
1019.577	   -0.02
1021.561	    0.00
1023.589	   -0.10
1025.549	   -0.04
1027.566	   -0.04
1029.588	   -0.02
1031.567	    0.05
1033.569	    0.04
1035.550	    0.12
1037.545	    0.08
1039.561	    0.08
1041.541	    0.14
1043.508	    0.02
1045.539	    0.03
1047.513	    0.00
1049.540	   -0.03
1051.515	   -0.02
1053.536	   -0.01
1055.523	    0.02
1057.517	   -0.04
1059.503	    0.07
1061.495	   -0.09
1063.549	   -0.04
1065.487	    0.02
1067.545	    0.01
1069.489	    0.07
1071.484	    0.09
1073.472	    0.06
1075.493	    0.06
1077.450	    0.15
1079.487	    0.19
1081.521	    0.13
1083.474	    0.23
1085.495	    0.29
1087.474	    0.35
1089.460	    0.36
1091.446	    0.33
1093.468	    0.49
1095.441	    0.51
1097.436	    0.46
1099.438	    0.43
1101.437	    0.48
1103.442	    0.53
1105.431	    0.68
1107.419	    0.59
1109.400	    0.59
1111.426	    0.65
1113.436	    0.66
1115.417	    0.76
1117.419	    0.84
1119.393	    0.80
1121.389	    0.90
1123.403	    0.95
1125.400	    0.90
1127.394	    0.93
1129.400	    0.96
1131.350	    0.94
1133.381	    1.03
1135.393	    0.99
1137.360	    1.05
1139.367	    1.10
1141.388	    1.10
1143.401	    1.08
1145.368	    1.10
1147.375	    1.02
1149.340	    0.94
1151.398	    1.01
1153.332	    1.11
1155.374	    1.15
1157.344	    1.16
1159.343	    1.07
1161.329	    1.13
1163.359	    1.04
1165.358	    1.14
1167.303	    1.09
1169.333	    1.12
1171.338	    1.15
1173.325	    1.14
1175.319	    1.09
1177.309	    1.16
1179.319	    1.12
1181.281	    1.03
1183.330	    1.18
1185.306	    1.20
1187.284	    1.12
1189.299	    1.10
1191.314	    1.16
1193.284	    1.15
1195.290	    1.14
1197.295	    1.18
1199.278	    1.12
1201.287	    1.16
1203.216	    1.10
1205.297	    1.19
1207.262	    1.09
1209.291	    1.15
1211.265	    1.26
1213.257	    1.21
1215.263	    1.21
1217.272	    1.21
1219.267	    1.29
1221.219	    1.37
1223.254	    1.35
1225.225	    1.34
1227.269	    1.40
1229.230	    1.30
1231.279	    1.23
1233.234	    1.32
1235.256	    1.09
1237.188	    1.11
1239.227	    1.28
1241.183	    1.20
1243.217	    1.17
1245.215	    1.12
1247.170	    1.02
1249.214	    0.99
1251.157	    1.07
1253.217	    1.03
1255.119	    1.01
1257.175	    0.96
1259.113	    0.95
1261.218	    1.11
1263.155	    1.24
1265.192	    1.08
1267.108	    1.19
1269.202	    1.35
1271.075	    1.35
1273.137	    1.33
1275.123	    1.59
1277.050	    1.78
1279.160	    1.99
1281.127	    2.22
1283.178	    2.61
1285.088	    2.97
1287.153	    3.42
1288.993	    3.46
1291.118	    3.70
1295.159	    3.70
1297.063	    3.58
1299.076	    3.52
1301.075	    3.41
1303.211	    3.04
1304.995	    2.63
1306.874	    2.51
1308.981	    2.17
1312.944	    1.69
1312.946	    1.89
1314.967	    1.72
1316.970	    1.73
1319.010	    1.69
1321.160	    1.53
1322.947	    1.57
1324.919	    1.54
1326.917	    1.48
1328.953	    1.40
1330.949	    1.39
1332.996	    1.43
1335.139	    1.25
1336.928	    1.21
1338.796	    1.19
1340.910	    1.10
1342.886	    1.13
1344.892	    1.15
1346.904	    1.15
1348.934	    1.07
1351.068	    1.13
1352.926	    1.10
1354.717	    1.19
1356.858	    1.15
1358.841	    1.23
1360.832	    1.26
1362.840	    1.23
1364.806	    1.23
1366.831	    1.35
1368.795	    1.38
1370.804	    1.38
1372.793	    1.35
1374.804	    1.39
1376.801	    1.42
1378.791	    1.34
1380.786	    1.47
1382.716	    1.52
1384.835	    1.55
1386.812	    1.47
1390.780	    1.58
1390.782	    1.53
1392.793	    1.46
1394.756	    1.48
1396.796	    1.53
1398.740	    1.42
1400.763	    1.40
1402.756	    1.50
1404.771	    1.36
1406.747	    1.43
1408.772	    1.43
1410.716	    1.49
1412.746	    1.25
1416.738	    1.12
1418.742	    1.20
1420.673	    1.20
1422.714	    1.21
1424.740	    1.21
1426.698	    1.18
1428.761	    1.15
1430.739	    1.26
1432.729	    1.25
1434.633	    1.26
1436.853	    1.23
1438.870	    1.33
1440.904	    1.39
1442.864	    1.33
1444.868	    1.27
1446.833	    1.21
1448.851	    1.36
1450.802	    1.27
1452.825	    1.27
1454.827	    1.11
1456.802	    1.13
1458.803	    1.21
1460.771	    1.27
1462.808	    1.12
1464.775	    1.27
1466.803	    1.30
1468.769	    1.25
1470.814	    1.26
1472.766	    1.26
1474.804	    1.31
1476.749	    1.27
1478.783	    1.22
1480.756	    1.22
1482.796	    1.17
1484.721	    1.17
1486.739	    1.15
1488.750	    1.16
1490.733	    1.21
1492.750	    1.22
1494.747	    1.07
1496.749	    1.18
1498.708	    1.20
1500.771	    1.17
1502.705	    1.03
1504.747	    1.17
1506.708	    1.15
1508.754	    1.04
1510.679	    1.14
1512.762	    1.13
1514.680	    1.25
1516.722	    1.21
1518.687	    1.15
1520.717	    1.20
1522.695	    1.20
1524.686	    1.20
1526.660	    1.30
1528.713	    1.37
1530.647	    1.24
1532.687	    1.20
1534.659	    1.21
1536.694	    1.23
1538.648	    1.25
1540.679	    1.17
1542.623	    1.19
1544.646	    1.19
1546.636	    1.17
1548.618	    1.08
1550.610	    1.05
1552.605	    1.08
1554.530	    1.00
1556.258	    1.08
1558.733	    1.07
1560.526	    1.04
1562.585	    0.95
1564.588	    0.98
1566.604	    0.99
1568.541	    0.96
1570.581	    0.95
1572.515	    1.05
1574.549	    1.11
1576.556	    1.15
1578.595	    1.11
1580.528	    1.02
1582.573	    1.16
1584.517	    1.14
1586.574	    1.05
1588.535	    1.13
1590.546	    1.05
1592.530	    0.97
1594.487	    0.81
1596.483	    0.85
1598.485	    0.80
1600.525	    0.72
1602.533	    0.68
1604.478	    0.50
1606.501	    0.47
1608.488	    0.53
1610.510	    0.55
1612.527	    0.60
1614.516	    0.45
1616.536	    0.53
1618.498	    0.48
1620.507	    0.54
1622.508	    0.50
1624.503	    0.36
1626.530	    0.43
1628.493	    0.38
1630.492	    0.30
1632.531	    0.26
1634.500	    0.30
1636.509	    0.28
1638.467	    0.23
1640.529	    0.19
1642.497	    0.19
1644.487	    0.17
1646.506	    0.26
1648.485	    0.20
1650.481	    0.29
1652.485	    0.36
1654.465	    0.32
1656.488	    0.36
1658.470	    0.31
1660.485	    0.25
1662.471	    0.22
1664.484	    0.09
1666.465	    0.06
1668.457	    0.08
1670.449	    0.05
1672.440	    0.04
1674.457	   -0.03
1676.433	   -0.01
1678.461	    0.02
1680.441	    0.06
1682.432	   -0.02
1684.436	   -0.06
1686.412	   -0.04
1688.438	   -0.04
1690.433	   -0.10
1692.415	    0.10
1694.420	    0.04
1696.426	    0.10
1698.414	    0.22
1700.385	    0.11
1702.418	    0.07
1704.423	    0.09
1706.408	    0.16
1708.400	    0.12
1710.397	    0.12
1712.418	    0.21
1714.354	    0.09
1716.399	    0.07
1718.364	    0.10
1720.384	    0.01
1722.392	    0.03
1724.347	   -0.16
1726.385	   -0.15
1728.347	   -0.07
1730.365	   -0.04
1732.367	    0.02
1734.356	    0.11
1736.347	    0.18
1738.348	    0.05
1740.330	    0.15
1742.355	    0.05
1744.339	    0.19
1746.353	    0.18
1748.344	    0.12
1750.335	    0.11
1752.323	    0.14
1754.327	    0.07
1756.327	   -0.11
1758.288	   -0.09
1760.322	   -0.17
1762.297	   -0.18
1764.302	   -0.20
1766.309	   -0.18
1768.292	   -0.15
1770.291	   -0.21
1772.278	   -0.24
1774.279	   -0.14
1776.314	   -0.20
1778.267	   -0.30
1780.291	   -0.42
1782.270	   -0.24
1784.268	   -0.36
1786.283	   -0.16
1788.229	   -0.22
1790.260	   -0.21
1792.247	   -0.21
1794.245	   -0.27
1796.181	   -0.28
